# H08_AHI RSR
# QV 2025-02-15 from AHI-8_SpectralResponsivity_Data.xlsx
# interpolated to 0.1 nm, filtered to response > 0.002
# VSWIR channels
#
# H08_AHI Band Band 1
# -------------------
0.4417 0.002161
0.4418 0.002457
0.4419 0.002777
0.4420 0.003122
0.4421 0.003537
0.4422 0.004064
0.4423 0.004701
0.4424 0.005447
0.4425 0.006299
0.4426 0.007255
0.4427 0.008314
0.4428 0.009471
0.4429 0.010727
0.4430 0.012078
0.4431 0.013710
0.4432 0.015783
0.4433 0.018262
0.4434 0.021110
0.4435 0.024292
0.4436 0.027768
0.4437 0.031504
0.4438 0.035461
0.4439 0.039603
0.4440 0.043896
0.4441 0.048673
0.4442 0.054221
0.4443 0.060426
0.4444 0.067177
0.4445 0.074359
0.4446 0.081860
0.4447 0.089565
0.4448 0.097362
0.4449 0.105136
0.4450 0.112776
0.4451 0.120470
0.4452 0.128447
0.4453 0.136653
0.4454 0.145033
0.4455 0.153532
0.4456 0.162095
0.4457 0.170669
0.4458 0.179198
0.4459 0.187629
0.4460 0.195905
0.4461 0.204056
0.4462 0.212151
0.4463 0.220204
0.4464 0.228228
0.4465 0.236234
0.4466 0.244236
0.4467 0.252246
0.4468 0.260276
0.4469 0.268339
0.4470 0.276447
0.4471 0.284638
0.4472 0.292918
0.4473 0.301257
0.4474 0.309623
0.4475 0.317985
0.4476 0.326310
0.4477 0.334568
0.4478 0.342727
0.4479 0.350755
0.4480 0.358622
0.4481 0.366345
0.4482 0.373968
0.4483 0.381500
0.4484 0.388950
0.4485 0.396327
0.4486 0.403638
0.4487 0.410892
0.4488 0.418097
0.4489 0.425263
0.4490 0.432397
0.4491 0.439468
0.4492 0.446447
0.4493 0.453354
0.4494 0.460207
0.4495 0.467025
0.4496 0.473826
0.4497 0.480627
0.4498 0.487449
0.4499 0.494308
0.4500 0.501225
0.4501 0.508197
0.4502 0.515206
0.4503 0.522242
0.4504 0.529296
0.4505 0.536356
0.4506 0.543414
0.4507 0.550459
0.4508 0.557482
0.4509 0.564471
0.4510 0.571418
0.4511 0.578441
0.4512 0.585615
0.4513 0.592868
0.4514 0.600127
0.4515 0.607317
0.4516 0.614367
0.4517 0.621202
0.4518 0.627750
0.4519 0.633938
0.4520 0.639692
0.4521 0.645185
0.4522 0.650607
0.4523 0.655912
0.4524 0.661055
0.4525 0.665988
0.4526 0.670667
0.4527 0.675044
0.4528 0.679074
0.4529 0.682711
0.4530 0.685906
0.4531 0.688714
0.4532 0.691252
0.4533 0.693568
0.4534 0.695712
0.4535 0.697732
0.4536 0.699676
0.4537 0.701594
0.4538 0.703535
0.4539 0.705547
0.4540 0.707678
0.4541 0.709874
0.4542 0.712055
0.4543 0.714230
0.4544 0.716408
0.4545 0.718599
0.4546 0.720812
0.4547 0.723056
0.4548 0.725341
0.4549 0.727676
0.4550 0.730071
0.4551 0.732547
0.4552 0.735108
0.4553 0.737737
0.4554 0.740417
0.4555 0.743129
0.4556 0.745857
0.4557 0.748583
0.4558 0.751291
0.4559 0.753961
0.4560 0.756579
0.4561 0.759269
0.4562 0.762121
0.4563 0.765059
0.4564 0.768010
0.4565 0.770898
0.4566 0.773650
0.4567 0.776188
0.4568 0.778440
0.4569 0.780332
0.4570 0.781790
0.4571 0.782997
0.4572 0.784174
0.4573 0.785299
0.4574 0.786349
0.4575 0.787301
0.4576 0.788131
0.4577 0.788817
0.4578 0.789335
0.4579 0.789663
0.4580 0.789778
0.4581 0.789561
0.4582 0.788973
0.4583 0.788108
0.4584 0.787058
0.4585 0.785914
0.4586 0.784771
0.4587 0.783720
0.4588 0.782853
0.4589 0.782267
0.4590 0.782051
0.4591 0.782070
0.4592 0.782132
0.4593 0.782233
0.4594 0.782371
0.4595 0.782545
0.4596 0.782754
0.4597 0.782997
0.4598 0.783271
0.4599 0.783575
0.4600 0.783908
0.4601 0.784674
0.4602 0.786180
0.4603 0.788302
0.4604 0.790917
0.4605 0.793893
0.4606 0.797102
0.4607 0.800418
0.4608 0.803711
0.4609 0.806855
0.4610 0.809724
0.4611 0.812657
0.4612 0.815976
0.4613 0.819524
0.4614 0.823149
0.4615 0.826691
0.4616 0.829995
0.4617 0.832907
0.4618 0.835264
0.4619 0.836916
0.4620 0.837710
0.4621 0.838003
0.4622 0.838269
0.4623 0.838509
0.4624 0.838719
0.4625 0.838900
0.4626 0.839051
0.4627 0.839170
0.4628 0.839256
0.4629 0.839309
0.4630 0.839326
0.4631 0.838978
0.4632 0.838042
0.4633 0.836658
0.4634 0.834980
0.4635 0.833154
0.4636 0.831327
0.4637 0.829649
0.4638 0.828265
0.4639 0.827329
0.4640 0.826982
0.4641 0.827092
0.4642 0.827414
0.4643 0.827927
0.4644 0.828615
0.4645 0.829458
0.4646 0.830438
0.4647 0.831537
0.4648 0.832737
0.4649 0.834020
0.4650 0.835369
0.4651 0.837200
0.4652 0.839846
0.4653 0.843169
0.4654 0.847019
0.4655 0.851258
0.4656 0.855740
0.4657 0.860323
0.4658 0.864861
0.4659 0.869213
0.4660 0.873235
0.4661 0.877168
0.4662 0.881288
0.4663 0.885520
0.4664 0.889783
0.4665 0.893997
0.4666 0.898082
0.4667 0.901960
0.4668 0.905546
0.4669 0.908767
0.4670 0.911538
0.4671 0.913946
0.4672 0.916148
0.4673 0.918175
0.4674 0.920065
0.4675 0.921846
0.4676 0.923556
0.4677 0.925226
0.4678 0.926889
0.4679 0.928579
0.4680 0.930330
0.4681 0.932166
0.4682 0.934069
0.4683 0.936003
0.4684 0.937932
0.4685 0.939822
0.4686 0.941637
0.4687 0.943343
0.4688 0.944905
0.4689 0.946285
0.4690 0.947452
0.4691 0.948511
0.4692 0.949575
0.4693 0.950618
0.4694 0.951612
0.4695 0.952528
0.4696 0.953340
0.4697 0.954019
0.4698 0.954539
0.4699 0.954871
0.4700 0.954988
0.4701 0.954947
0.4702 0.954835
0.4703 0.954670
0.4704 0.954469
0.4705 0.954251
0.4706 0.954033
0.4707 0.953832
0.4708 0.953668
0.4709 0.953555
0.4710 0.953515
0.4711 0.953648
0.4712 0.954012
0.4713 0.954546
0.4714 0.955196
0.4715 0.955903
0.4716 0.956610
0.4717 0.957260
0.4718 0.957794
0.4719 0.958158
0.4720 0.958290
0.4721 0.958072
0.4722 0.957476
0.4723 0.956602
0.4724 0.955537
0.4725 0.954379
0.4726 0.953222
0.4727 0.952157
0.4728 0.951282
0.4729 0.950687
0.4730 0.950468
0.4731 0.950542
0.4732 0.950753
0.4733 0.951082
0.4734 0.951511
0.4735 0.952022
0.4736 0.952598
0.4737 0.953219
0.4738 0.953867
0.4739 0.954526
0.4740 0.955175
0.4741 0.955938
0.4742 0.956903
0.4743 0.958016
0.4744 0.959220
0.4745 0.960456
0.4746 0.961669
0.4747 0.962800
0.4748 0.963791
0.4749 0.964587
0.4750 0.965129
0.4751 0.965520
0.4752 0.965894
0.4753 0.966246
0.4754 0.966571
0.4755 0.966861
0.4756 0.967113
0.4757 0.967318
0.4758 0.967472
0.4759 0.967569
0.4760 0.967602
0.4761 0.967460
0.4762 0.967069
0.4763 0.966486
0.4764 0.965765
0.4765 0.964962
0.4766 0.964132
0.4767 0.963330
0.4768 0.962610
0.4769 0.962030
0.4770 0.961643
0.4771 0.961373
0.4772 0.961111
0.4773 0.960862
0.4774 0.960631
0.4775 0.960422
0.4776 0.960241
0.4777 0.960091
0.4778 0.959978
0.4779 0.959907
0.4780 0.959883
0.4781 0.960054
0.4782 0.960536
0.4783 0.961285
0.4784 0.962252
0.4785 0.963397
0.4786 0.964671
0.4787 0.966030
0.4788 0.967428
0.4789 0.968820
0.4790 0.970161
0.4791 0.971580
0.4792 0.973202
0.4793 0.974982
0.4794 0.976871
0.4795 0.978821
0.4796 0.980786
0.4797 0.982717
0.4798 0.984568
0.4799 0.986289
0.4800 0.987834
0.4801 0.989343
0.4802 0.990945
0.4803 0.992581
0.4804 0.994192
0.4805 0.995718
0.4806 0.997100
0.4807 0.998280
0.4808 0.999194
0.4809 0.999787
0.4810 1.000000
0.4811 0.999934
0.4812 0.999746
0.4813 0.999446
0.4814 0.999042
0.4815 0.998547
0.4816 0.997972
0.4817 0.997324
0.4818 0.996617
0.4819 0.995860
0.4820 0.995062
0.4821 0.993997
0.4822 0.992481
0.4823 0.990578
0.4824 0.988352
0.4825 0.985874
0.4826 0.983210
0.4827 0.980426
0.4828 0.977590
0.4829 0.974768
0.4830 0.972028
0.4831 0.969291
0.4832 0.966437
0.4833 0.963472
0.4834 0.960401
0.4835 0.957231
0.4836 0.953968
0.4837 0.950617
0.4838 0.947183
0.4839 0.943674
0.4840 0.940094
0.4841 0.936447
0.4842 0.932722
0.4843 0.928906
0.4844 0.924986
0.4845 0.920947
0.4846 0.916776
0.4847 0.912460
0.4848 0.907987
0.4849 0.903340
0.4850 0.898507
0.4851 0.893425
0.4852 0.888056
0.4853 0.882425
0.4854 0.876561
0.4855 0.870492
0.4856 0.864244
0.4857 0.857843
0.4858 0.851318
0.4859 0.844696
0.4860 0.838005
0.4861 0.831139
0.4862 0.824007
0.4863 0.816652
0.4864 0.809117
0.4865 0.801444
0.4866 0.793674
0.4867 0.785852
0.4868 0.778020
0.4869 0.770220
0.4870 0.762494
0.4871 0.754743
0.4872 0.746866
0.4873 0.738907
0.4874 0.730907
0.4875 0.722912
0.4876 0.714963
0.4877 0.707104
0.4878 0.699378
0.4879 0.691829
0.4880 0.684501
0.4881 0.677396
0.4882 0.670469
0.4883 0.663688
0.4884 0.657019
0.4885 0.650431
0.4886 0.643891
0.4887 0.637366
0.4888 0.630824
0.4889 0.624232
0.4890 0.617557
0.4891 0.610868
0.4892 0.604237
0.4893 0.597634
0.4894 0.591035
0.4895 0.584411
0.4896 0.577734
0.4897 0.570978
0.4898 0.564114
0.4899 0.557117
0.4900 0.549958
0.4901 0.542722
0.4902 0.535482
0.4903 0.528190
0.4904 0.520800
0.4905 0.513266
0.4906 0.505542
0.4907 0.497581
0.4908 0.489335
0.4909 0.480757
0.4910 0.471800
0.4911 0.462297
0.4912 0.452173
0.4913 0.441532
0.4914 0.430476
0.4915 0.419108
0.4916 0.407532
0.4917 0.395852
0.4918 0.384171
0.4919 0.372592
0.4920 0.361218
0.4921 0.349928
0.4922 0.338548
0.4923 0.327101
0.4924 0.315610
0.4925 0.304097
0.4926 0.292586
0.4927 0.281100
0.4928 0.269660
0.4929 0.258291
0.4930 0.247015
0.4931 0.235602
0.4932 0.223903
0.4933 0.212057
0.4934 0.200203
0.4935 0.188480
0.4936 0.177028
0.4937 0.165987
0.4938 0.155494
0.4939 0.145691
0.4940 0.136719
0.4941 0.128302
0.4942 0.120102
0.4943 0.112160
0.4944 0.104520
0.4945 0.097225
0.4946 0.090318
0.4947 0.083843
0.4948 0.077841
0.4949 0.072357
0.4950 0.067434
0.4951 0.062911
0.4952 0.058603
0.4953 0.054516
0.4954 0.050658
0.4955 0.047035
0.4956 0.043654
0.4957 0.040523
0.4958 0.037649
0.4959 0.035038
0.4960 0.032698
0.4961 0.030561
0.4962 0.028555
0.4963 0.026673
0.4964 0.024910
0.4965 0.023263
0.4966 0.021725
0.4967 0.020293
0.4968 0.018961
0.4969 0.017725
0.4970 0.016579
0.4971 0.015500
0.4972 0.014472
0.4973 0.013494
0.4974 0.012569
0.4975 0.011698
0.4976 0.010882
0.4977 0.010123
0.4978 0.009423
0.4979 0.008783
0.4980 0.008203
0.4981 0.007670
0.4982 0.007167
0.4983 0.006692
0.4984 0.006246
0.4985 0.005827
0.4986 0.005436
0.4987 0.005071
0.4988 0.004733
0.4989 0.004421
0.4990 0.004133
0.4991 0.003865
0.4992 0.003611
0.4993 0.003371
0.4994 0.003144
0.4995 0.002931
0.4996 0.002730
0.4997 0.002543
0.4998 0.002369
0.4999 0.002207
0.5000 0.002057
# -------------------
# H08_AHI Band Band 2
# -------------------
0.4815 0.002021
0.4816 0.002138
0.4817 0.002262
0.4818 0.002394
0.4819 0.002534
0.4820 0.002680
0.4821 0.002838
0.4822 0.003011
0.4823 0.003199
0.4824 0.003401
0.4825 0.003619
0.4826 0.003850
0.4827 0.004096
0.4828 0.004356
0.4829 0.004630
0.4830 0.004918
0.4831 0.005229
0.4832 0.005570
0.4833 0.005940
0.4834 0.006339
0.4835 0.006764
0.4836 0.007214
0.4837 0.007689
0.4838 0.008188
0.4839 0.008709
0.4840 0.009251
0.4841 0.009823
0.4842 0.010436
0.4843 0.011090
0.4844 0.011785
0.4845 0.012522
0.4846 0.013302
0.4847 0.014125
0.4848 0.014991
0.4849 0.015901
0.4850 0.016856
0.4851 0.017865
0.4852 0.018941
0.4853 0.020089
0.4854 0.021313
0.4855 0.022617
0.4856 0.024006
0.4857 0.025486
0.4858 0.027059
0.4859 0.028731
0.4860 0.030506
0.4861 0.032452
0.4862 0.034623
0.4863 0.037003
0.4864 0.039575
0.4865 0.042324
0.4866 0.045236
0.4867 0.048293
0.4868 0.051478
0.4869 0.054777
0.4870 0.058174
0.4871 0.061806
0.4872 0.065783
0.4873 0.070051
0.4874 0.074558
0.4875 0.079252
0.4876 0.084078
0.4877 0.088983
0.4878 0.093913
0.4879 0.098816
0.4880 0.103637
0.4881 0.108443
0.4882 0.113326
0.4883 0.118273
0.4884 0.123273
0.4885 0.128311
0.4886 0.133376
0.4887 0.138454
0.4888 0.143532
0.4889 0.148598
0.4890 0.153638
0.4891 0.158672
0.4892 0.163723
0.4893 0.168785
0.4894 0.173854
0.4895 0.178924
0.4896 0.183990
0.4897 0.189047
0.4898 0.194090
0.4899 0.199113
0.4900 0.204111
0.4901 0.209090
0.4902 0.214056
0.4903 0.219010
0.4904 0.223953
0.4905 0.228882
0.4906 0.233799
0.4907 0.238704
0.4908 0.243595
0.4909 0.248472
0.4910 0.253336
0.4911 0.258148
0.4912 0.262887
0.4913 0.267579
0.4914 0.272250
0.4915 0.276925
0.4916 0.281631
0.4917 0.286392
0.4918 0.291236
0.4919 0.296187
0.4920 0.301272
0.4921 0.306474
0.4922 0.311762
0.4923 0.317135
0.4924 0.322594
0.4925 0.328139
0.4926 0.333769
0.4927 0.339484
0.4928 0.345284
0.4929 0.351170
0.4930 0.357142
0.4931 0.363237
0.4932 0.369479
0.4933 0.375849
0.4934 0.382324
0.4935 0.388886
0.4936 0.395512
0.4937 0.402184
0.4938 0.408881
0.4939 0.415582
0.4940 0.422266
0.4941 0.428925
0.4942 0.435574
0.4943 0.442233
0.4944 0.448918
0.4945 0.455649
0.4946 0.462442
0.4947 0.469317
0.4948 0.476290
0.4949 0.483381
0.4950 0.490607
0.4951 0.497991
0.4952 0.505529
0.4953 0.513200
0.4954 0.520985
0.4955 0.528864
0.4956 0.536815
0.4957 0.544819
0.4958 0.552855
0.4959 0.560904
0.4960 0.568944
0.4961 0.576968
0.4962 0.584992
0.4963 0.593034
0.4964 0.601111
0.4965 0.609241
0.4966 0.617441
0.4967 0.625730
0.4968 0.634124
0.4969 0.642642
0.4970 0.651300
0.4971 0.660098
0.4972 0.669021
0.4973 0.678063
0.4974 0.687219
0.4975 0.696485
0.4976 0.705855
0.4977 0.715324
0.4978 0.724886
0.4979 0.734537
0.4980 0.744273
0.4981 0.754269
0.4982 0.764628
0.4983 0.775243
0.4984 0.786000
0.4985 0.796789
0.4986 0.807499
0.4987 0.818017
0.4988 0.828233
0.4989 0.838034
0.4990 0.847311
0.4991 0.856318
0.4992 0.865324
0.4993 0.874243
0.4994 0.882986
0.4995 0.891465
0.4996 0.899593
0.4997 0.907282
0.4998 0.914443
0.4999 0.920988
0.5000 0.926830
0.5001 0.932235
0.5002 0.937494
0.5003 0.942560
0.5004 0.947381
0.5005 0.951909
0.5006 0.956094
0.5007 0.959886
0.5008 0.963236
0.5009 0.966093
0.5010 0.968410
0.5011 0.970359
0.5012 0.972151
0.5013 0.973794
0.5014 0.975298
0.5015 0.976670
0.5016 0.977917
0.5017 0.979049
0.5018 0.980073
0.5019 0.980998
0.5020 0.981832
0.5021 0.982579
0.5022 0.983249
0.5023 0.983855
0.5024 0.984410
0.5025 0.984928
0.5026 0.985423
0.5027 0.985907
0.5028 0.986395
0.5029 0.986899
0.5030 0.987433
0.5031 0.988023
0.5032 0.988672
0.5033 0.989352
0.5034 0.990040
0.5035 0.990710
0.5036 0.991337
0.5037 0.991894
0.5038 0.992357
0.5039 0.992700
0.5040 0.992900
0.5041 0.993015
0.5042 0.993120
0.5043 0.993217
0.5044 0.993304
0.5045 0.993379
0.5046 0.993443
0.5047 0.993494
0.5048 0.993532
0.5049 0.993555
0.5050 0.993563
0.5051 0.993361
0.5052 0.992801
0.5053 0.991948
0.5054 0.990867
0.5055 0.989622
0.5056 0.988281
0.5057 0.986906
0.5058 0.985564
0.5059 0.984320
0.5060 0.983237
0.5061 0.982184
0.5062 0.981018
0.5063 0.979790
0.5064 0.978555
0.5065 0.977366
0.5066 0.976274
0.5067 0.975333
0.5068 0.974595
0.5069 0.974113
0.5070 0.973940
0.5071 0.973992
0.5072 0.974143
0.5073 0.974380
0.5074 0.974693
0.5075 0.975068
0.5076 0.975495
0.5077 0.975963
0.5078 0.976460
0.5079 0.976974
0.5080 0.977493
0.5081 0.978087
0.5082 0.978815
0.5083 0.979658
0.5084 0.980596
0.5085 0.981609
0.5086 0.982677
0.5087 0.983781
0.5088 0.984899
0.5089 0.986013
0.5090 0.987103
0.5091 0.988309
0.5092 0.989729
0.5093 0.991285
0.5094 0.992895
0.5095 0.994478
0.5096 0.995955
0.5097 0.997243
0.5098 0.998263
0.5099 0.998934
0.5100 0.999179
0.5101 0.999166
0.5102 0.999126
0.5103 0.999062
0.5104 0.998974
0.5105 0.998864
0.5106 0.998732
0.5107 0.998580
0.5108 0.998409
0.5109 0.998220
0.5110 0.998011
0.5111 0.997496
0.5112 0.996469
0.5113 0.995052
0.5114 0.993367
0.5115 0.991543
0.5116 0.989704
0.5117 0.987973
0.5118 0.986476
0.5119 0.985337
0.5120 0.984685
0.5121 0.984321
0.5122 0.983983
0.5123 0.983672
0.5124 0.983390
0.5125 0.983141
0.5126 0.982930
0.5127 0.982760
0.5128 0.982633
0.5129 0.982555
0.5130 0.982529
0.5131 0.982828
0.5132 0.983641
0.5133 0.984858
0.5134 0.986368
0.5135 0.988062
0.5136 0.989822
0.5137 0.991539
0.5138 0.993101
0.5139 0.994396
0.5140 0.995308
0.5141 0.995997
0.5142 0.996676
0.5143 0.997332
0.5144 0.997949
0.5145 0.998512
0.5146 0.999007
0.5147 0.999419
0.5148 0.999732
0.5149 0.999930
0.5150 0.999998
0.5151 0.999865
0.5152 0.999489
0.5153 0.998900
0.5154 0.998133
0.5155 0.997224
0.5156 0.996205
0.5157 0.995108
0.5158 0.993968
0.5159 0.992818
0.5160 0.991691
0.5161 0.990514
0.5162 0.989197
0.5163 0.987754
0.5164 0.986200
0.5165 0.984547
0.5166 0.982809
0.5167 0.980999
0.5168 0.979132
0.5169 0.977220
0.5170 0.975277
0.5171 0.973289
0.5172 0.971227
0.5173 0.969084
0.5174 0.966851
0.5175 0.964521
0.5176 0.962088
0.5177 0.959542
0.5178 0.956877
0.5179 0.954085
0.5180 0.951159
0.5181 0.948034
0.5182 0.944671
0.5183 0.941090
0.5184 0.937310
0.5185 0.933351
0.5186 0.929235
0.5187 0.924982
0.5188 0.920610
0.5189 0.916143
0.5190 0.911598
0.5191 0.906871
0.5192 0.901869
0.5193 0.896640
0.5194 0.891227
0.5195 0.885671
0.5196 0.880021
0.5197 0.874319
0.5198 0.868610
0.5199 0.862938
0.5200 0.857348
0.5201 0.851800
0.5202 0.846227
0.5203 0.840629
0.5204 0.835008
0.5205 0.829365
0.5206 0.823702
0.5207 0.818019
0.5208 0.812319
0.5209 0.806601
0.5210 0.800868
0.5211 0.795118
0.5212 0.789347
0.5213 0.783557
0.5214 0.777748
0.5215 0.771920
0.5216 0.766073
0.5217 0.760209
0.5218 0.754326
0.5219 0.748427
0.5220 0.742510
0.5221 0.736576
0.5222 0.730622
0.5223 0.724651
0.5224 0.718660
0.5225 0.712652
0.5226 0.706625
0.5227 0.700581
0.5228 0.694518
0.5229 0.688439
0.5230 0.682341
0.5231 0.676219
0.5232 0.670067
0.5233 0.663891
0.5234 0.657694
0.5235 0.651483
0.5236 0.645261
0.5237 0.639034
0.5238 0.632806
0.5239 0.626583
0.5240 0.620369
0.5241 0.614177
0.5242 0.608009
0.5243 0.601854
0.5244 0.595701
0.5245 0.589538
0.5246 0.583354
0.5247 0.577138
0.5248 0.570880
0.5249 0.564567
0.5250 0.558188
0.5251 0.551750
0.5252 0.545262
0.5253 0.538729
0.5254 0.532154
0.5255 0.525539
0.5256 0.518886
0.5257 0.512197
0.5258 0.505477
0.5259 0.498726
0.5260 0.491948
0.5261 0.485143
0.5262 0.478310
0.5263 0.471444
0.5264 0.464545
0.5265 0.457609
0.5266 0.450633
0.5267 0.443615
0.5268 0.436553
0.5269 0.429444
0.5270 0.422285
0.5271 0.415089
0.5272 0.407866
0.5273 0.400606
0.5274 0.393303
0.5275 0.385948
0.5276 0.378533
0.5277 0.371050
0.5278 0.363491
0.5279 0.355849
0.5280 0.348114
0.5281 0.340256
0.5282 0.332265
0.5283 0.324164
0.5284 0.315974
0.5285 0.307718
0.5286 0.299419
0.5287 0.291099
0.5288 0.282780
0.5289 0.274486
0.5290 0.266238
0.5291 0.257984
0.5292 0.249670
0.5293 0.241320
0.5294 0.232956
0.5295 0.224602
0.5296 0.216280
0.5297 0.208015
0.5298 0.199828
0.5299 0.191744
0.5300 0.183783
0.5301 0.175826
0.5302 0.167780
0.5303 0.159711
0.5304 0.151686
0.5305 0.143769
0.5306 0.136030
0.5307 0.128530
0.5308 0.121345
0.5309 0.114529
0.5310 0.108161
0.5311 0.102068
0.5312 0.096079
0.5313 0.090231
0.5314 0.084566
0.5315 0.079123
0.5316 0.073942
0.5317 0.069066
0.5318 0.064530
0.5319 0.060384
0.5320 0.056654
0.5321 0.053236
0.5322 0.049977
0.5323 0.046885
0.5324 0.043960
0.5325 0.041208
0.5326 0.038631
0.5327 0.036235
0.5328 0.034021
0.5329 0.031994
0.5330 0.030156
0.5331 0.028465
0.5332 0.026873
0.5333 0.025375
0.5334 0.023967
0.5335 0.022645
0.5336 0.021406
0.5337 0.020245
0.5338 0.019159
0.5339 0.018142
0.5340 0.017192
0.5341 0.016296
0.5342 0.015445
0.5343 0.014636
0.5344 0.013869
0.5345 0.013143
0.5346 0.012456
0.5347 0.011808
0.5348 0.011197
0.5349 0.010622
0.5350 0.010083
0.5351 0.009570
0.5352 0.009080
0.5353 0.008611
0.5354 0.008165
0.5355 0.007740
0.5356 0.007337
0.5357 0.006957
0.5358 0.006599
0.5359 0.006263
0.5360 0.005950
0.5361 0.005655
0.5362 0.005374
0.5363 0.005106
0.5364 0.004851
0.5365 0.004609
0.5366 0.004379
0.5367 0.004161
0.5368 0.003955
0.5369 0.003761
0.5370 0.003577
0.5371 0.003403
0.5372 0.003236
0.5373 0.003076
0.5374 0.002922
0.5375 0.002776
0.5376 0.002637
0.5377 0.002506
0.5378 0.002383
0.5379 0.002268
0.5380 0.002161
0.5381 0.002059
# -------------------
# H08_AHI Band Band 3
# -------------------
0.5801 0.002086
0.5802 0.002184
0.5803 0.002290
0.5804 0.002405
0.5805 0.002529
0.5806 0.002661
0.5807 0.002802
0.5808 0.002952
0.5809 0.003110
0.5810 0.003279
0.5811 0.003461
0.5812 0.003662
0.5813 0.003881
0.5814 0.004119
0.5815 0.004375
0.5816 0.004649
0.5817 0.004940
0.5818 0.005250
0.5819 0.005576
0.5820 0.005920
0.5821 0.006292
0.5822 0.006702
0.5823 0.007150
0.5824 0.007634
0.5825 0.008151
0.5826 0.008701
0.5827 0.009283
0.5828 0.009893
0.5829 0.010532
0.5830 0.011199
0.5831 0.011920
0.5832 0.012718
0.5833 0.013585
0.5834 0.014510
0.5835 0.015481
0.5836 0.016490
0.5837 0.017526
0.5838 0.018578
0.5839 0.019637
0.5840 0.020691
0.5841 0.021772
0.5842 0.022908
0.5843 0.024086
0.5844 0.025292
0.5845 0.026515
0.5846 0.027740
0.5847 0.028955
0.5848 0.030147
0.5849 0.031303
0.5850 0.032409
0.5851 0.033462
0.5852 0.034474
0.5853 0.035457
0.5854 0.036420
0.5855 0.037374
0.5856 0.038329
0.5857 0.039296
0.5858 0.040285
0.5859 0.041307
0.5860 0.042372
0.5861 0.043460
0.5862 0.044551
0.5863 0.045653
0.5864 0.046774
0.5865 0.047924
0.5866 0.049112
0.5867 0.050346
0.5868 0.051634
0.5869 0.052986
0.5870 0.054411
0.5871 0.055915
0.5872 0.057499
0.5873 0.059165
0.5874 0.060911
0.5875 0.062738
0.5876 0.064646
0.5877 0.066634
0.5878 0.068704
